#date: 15.10.2020	time: 13:21:48
#t (s)	f (Hz)	A1 (V)	A2 (V)	phase (deg)
7.05	1.0000E+1	1.5296	Inf	+Inf
7.28	1.0100E+3	2.3808	Inf	+Inf
7.48	2.0100E+3	2.4071	Inf	+Inf
7.69	3.0100E+3	2.4558	Inf	+Inf
7.90	4.0100E+3	2.5204	Inf	+Inf
8.10	5.0100E+3	2.5968	Inf	+Inf
8.30	6.0100E+3	2.6813	Inf	+Inf
8.50	7.0100E+3	2.7699	Inf	+Inf
8.70	8.0100E+3	2.8710	Inf	+Inf
8.91	9.0100E+3	2.9738	Inf	+Inf
9.11	1.0010E+4	3.0701	Inf	+Inf
9.31	1.1010E+4	3.1519	0.4243	+161.5
9.53	1.2010E+4	3.2305	0.4565	+147.9
9.75	1.3010E+4	3.3145	0.4794	+151.9
9.98	1.4010E+4	3.3909	0.5025	+154.0
10.21	1.5010E+4	3.4607	0.5248	+157.1
10.43	1.6010E+4	3.5242	0.5424	+159.2
10.64	1.7010E+4	3.5814	0.5558	+159.9
10.88	1.8010E+4	3.6268	0.5695	+160.6
11.09	1.9010E+4	3.6686	0.5777	+162.4
11.31	2.0010E+4	3.7207	0.5920	+164.4
11.53	2.1010E+4	3.7631	0.6034	+167.3
11.76	2.2010E+4	3.8083	0.6148	+167.2
11.97	2.3010E+4	3.8451	0.6231	+168.8
12.19	2.4010E+4	3.8840	0.6317	+169.3
12.42	2.5010E+4	3.9210	0.6387	+169.9
12.64	2.6010E+4	3.9513	0.6452	+172.6
12.86	2.7010E+4	3.9792	0.6515	+173.7
13.09	2.8010E+4	4.0097	0.6569	+173.9
13.31	2.9010E+4	4.0355	0.6620	+174.0
13.54	3.0010E+4	4.0613	0.6652	+176.8
13.75	3.1010E+4	4.0852	0.6696	+175.9
13.96	3.2010E+4	4.1009	0.6726	+180.3
14.17	3.3010E+4	4.1212	0.6759	+178.2
14.39	3.4010E+4	4.1408	0.6787	+178.6
14.60	3.5010E+4	4.1557	0.6805	-179.3
14.82	3.6010E+4	4.1708	0.6826	-180.1
15.00	3.7010E+4	4.1827	0.6838	-176.3
15.23	3.8010E+4	4.1982	0.6865	-178.1
15.45	3.9010E+4	4.2124	0.6883	-174.7
15.67	4.0010E+4	4.2247	0.6896	-176.6
15.87	4.1010E+4	4.2367	0.6911	-174.1
16.08	4.2010E+4	4.2407	0.6920	-175.8
16.30	4.3010E+4	4.2523	0.6930	-174.2
16.48	4.4010E+4	4.2600	0.6934	-173.3
16.70	4.5010E+4	4.2675	0.6940	-171.8
16.88	4.6010E+4	4.2730	0.6945	-172.8
17.08	4.7010E+4	4.2837	0.6954	-172.0
17.26	4.8010E+4	4.2947	0.6957	-171.8
17.48	4.9010E+4	4.2960	0.6964	-170.7
17.66	5.0010E+4	4.3026	0.6966	-171.1
17.85	5.1010E+4	4.3101	0.6961	-170.5
18.03	5.2010E+4	4.3150	0.6958	-169.4
18.25	5.3010E+4	4.3176	0.6951	-167.8
18.43	5.4010E+4	4.3237	0.6947	-168.1
18.61	5.5010E+4	4.3306	0.6948	-168.9
18.79	5.6010E+4	4.3365	0.6938	-169.0
18.99	5.7010E+4	4.3414	0.6935	-166.7
19.18	5.8010E+4	4.3469	0.6932	-165.4
19.39	5.9010E+4	4.3490	0.6925	-166.8
19.57	6.0010E+4	4.3529	0.6910	-166.0
19.78	6.1010E+4	4.3595	0.6907	-164.0
19.96	6.2010E+4	4.3621	0.6901	-164.2
20.14	6.3010E+4	4.3679	0.6894	-164.2
20.32	6.4010E+4	4.3708	0.6889	-162.0
20.52	6.5010E+4	4.3674	0.6876	-161.2
20.76	6.6010E+4	4.3793	0.6872	-162.4
20.96	6.7010E+4	4.3800	0.6855	-159.4
21.16	6.8010E+4	4.3818	0.6850	-161.7
21.34	6.9010E+4	4.3826	0.6841	-161.3
21.52	7.0010E+4	4.3906	0.6825	-160.7
21.72	7.1010E+4	4.3906	0.6814	-160.4
21.90	7.2010E+4	4.3952	0.6812	-160.2
22.09	7.3010E+4	4.3933	0.6795	-158.6
22.30	7.4010E+4	4.3993	0.6790	-159.6
22.50	7.5010E+4	4.3972	0.6773	-155.2
22.72	7.6010E+4	4.4016	0.6763	-156.9
22.92	7.7010E+4	4.4023	0.6759	-157.7
23.10	7.8010E+4	4.4054	0.6744	-157.2
23.32	7.9010E+4	4.4044	0.6733	-156.9
23.50	8.0010E+4	4.4105	0.6718	-155.6
23.70	8.1010E+4	4.4121	0.6715	-156.1
23.88	8.2010E+4	4.4106	0.6696	-156.0
24.08	8.3010E+4	4.4160	0.6688	-155.9
24.30	8.4010E+4	4.4203	0.6675	-154.6
24.50	8.5010E+4	4.4189	0.6661	-152.2
24.70	8.6010E+4	4.4221	0.6654	-154.2
24.88	8.7010E+4	4.4244	0.6648	-153.4
25.06	8.8010E+4	4.4252	0.6633	-154.6
25.28	8.9010E+4	4.4278	0.6623	-153.2
25.48	9.0010E+4	4.4262	0.6600	-152.6
25.70	9.1010E+4	4.4334	0.6593	-151.9
25.89	9.2010E+4	4.4316	0.6578	-151.3
26.08	9.3010E+4	4.4327	0.6569	-149.5
26.28	9.4010E+4	4.4338	0.6558	-151.1
26.46	9.5010E+4	4.4375	0.6546	-150.0
26.66	9.6010E+4	4.4395	0.6538	-149.0
26.84	9.7010E+4	4.4409	0.6527	-149.9
27.04	9.8010E+4	4.4412	0.6508	-149.0
27.24	9.9010E+4	4.4381	0.6495	-149.4
27.43	1.0001E+5	4.4466	0.6491	-150.8
27.62	1.0101E+5	4.4466	0.6467	-149.6
27.81	1.0201E+5	4.4470	0.6469	-148.9
27.99	1.0301E+5	4.4447	0.6446	-147.3
28.21	1.0401E+5	4.4480	0.6442	-149.0
28.39	1.0501E+5	4.4514	0.6430	-147.3
28.59	1.0601E+5	4.4548	0.6419	-148.1
28.77	1.0701E+5	4.4551	0.6404	-148.2
29.00	1.0801E+5	4.4504	0.6392	-146.0
29.22	1.0901E+5	4.4575	0.6387	-145.1
29.42	1.1001E+5	4.4519	0.6371	-145.6
29.64	1.1101E+5	4.4630	0.6365	-147.2
29.85	1.1201E+5	4.4601	0.6350	-143.2
30.07	1.1301E+5	4.4587	0.6336	-144.4
30.25	1.1401E+5	4.4562	0.6322	-145.7
30.47	1.1501E+5	4.4603	0.6313	-143.0
30.65	1.1601E+5	4.4609	0.6303	-143.9
30.85	1.1701E+5	4.4613	0.6300	-142.7
31.03	1.1801E+5	4.4600	0.6283	-143.5
31.23	1.1901E+5	4.4635	0.6273	-144.1
31.43	1.2001E+5	4.4620	0.6262	-142.2
31.63	1.2101E+5	4.4644	0.6254	-143.8
31.82	1.2201E+5	4.4676	0.6234	-142.5
32.03	1.2301E+5	4.4692	0.6231	-144.3
32.22	1.2401E+5	4.4691	0.6218	-143.8
32.42	1.2501E+5	4.4726	0.6204	-141.1
32.61	1.2601E+5	4.4736	0.6206	-140.6
32.80	1.2701E+5	4.4722	0.6187	-142.4
32.98	1.2801E+5	4.4732	0.6180	-143.0
33.18	1.2901E+5	4.4736	0.6169	-140.5
33.36	1.3001E+5	4.4758	0.6155	-139.3
33.55	1.3101E+5	4.4767	0.6153	-141.3
33.73	1.3201E+5	4.4801	0.6145	-140.4
33.95	1.3301E+5	4.4777	0.6125	-138.8
34.13	1.3401E+5	4.4821	0.6121	-137.6
34.33	1.3501E+5	4.4818	0.6114	-136.5
34.51	1.3601E+5	4.4816	0.6098	-138.8
34.69	1.3701E+5	4.4832	0.6084	-137.2
34.91	1.3801E+5	4.4781	0.6077	-140.9
35.11	1.3901E+5	4.4846	0.6070	-137.7
35.33	1.4001E+5	4.4757	0.6070	-139.3
35.52	1.4101E+5	4.4862	0.6064	-138.8
35.76	1.4201E+5	4.4801	0.6044	-137.4
35.96	1.4301E+5	4.4863	0.6047	-137.6
36.16	1.4401E+5	4.4863	0.6023	-137.4
36.36	1.4501E+5	4.4856	0.6015	-136.8
36.54	1.4601E+5	4.4859	0.6019	-137.3
36.72	1.4701E+5	4.4860	0.6005	-137.7
36.94	1.4801E+5	4.4890	0.5985	-136.8
37.12	1.4901E+5	4.4872	0.5989	-135.2
37.30	1.5001E+5	4.4852	0.5975	-136.1
37.50	1.5101E+5	4.4900	0.5979	-134.4
37.69	1.5201E+5	4.4863	0.5958	-136.1
37.87	1.5301E+5	4.4890	0.5948	-136.3
38.07	1.5401E+5	4.4906	0.5948	-135.6
38.25	1.5501E+5	4.4887	0.5933	-134.4
38.44	1.5601E+5	4.4948	0.5933	-133.3
38.62	1.5701E+5	4.4931	0.5924	-134.8
38.83	1.5801E+5	4.4993	0.5927	-132.9
39.04	1.5901E+5	4.4927	0.5911	-134.8
39.23	1.6001E+5	4.4920	0.5897	-135.2
39.43	1.6101E+5	4.4971	0.5906	-132.9
39.65	1.6201E+5	4.4920	0.5892	-134.5
39.85	1.6301E+5	4.4966	0.5869	-134.6
40.07	1.6401E+5	4.4979	0.5880	-133.6
40.27	1.6501E+5	4.4995	0.5870	-132.6
40.45	1.6601E+5	4.4979	0.5868	-132.1
40.65	1.6701E+5	4.4966	0.5858	-132.7
40.83	1.6801E+5	4.5006	0.5851	-133.0
41.01	1.6901E+5	4.4993	0.5848	-132.2
41.20	1.7001E+5	4.5013	0.5838	-132.5
41.40	1.7101E+5	4.5019	0.5836	-132.6
41.58	1.7201E+5	4.5016	0.5827	-132.8
41.76	1.7301E+5	4.5017	0.5828	-130.6
41.95	1.7401E+5	4.5047	0.5824	-132.1
42.13	1.7501E+5	4.5009	0.5821	-133.2
42.31	1.7601E+5	4.5036	0.5815	-129.0
42.49	1.7701E+5	4.5012	0.5811	-131.6
42.71	1.7801E+5	4.5040	0.5818	-130.0
42.91	1.7901E+5	4.5033	0.5801	-129.5
43.12	1.8001E+5	4.5048	0.5801	-131.3
43.32	1.8101E+5	4.5041	0.5793	-131.4
43.51	1.8201E+5	4.5079	0.5783	-129.6
43.71	1.8301E+5	4.5094	0.5800	-132.3
43.91	1.8401E+5	4.5070	0.5784	-128.7
44.11	1.8501E+5	4.5095	0.5780	-130.4
44.29	1.8601E+5	4.5079	0.5762	-129.9
44.47	1.8701E+5	4.5057	0.5776	-128.4
44.66	1.8801E+5	4.5051	0.5764	-129.9
44.84	1.8901E+5	4.5085	0.5769	-131.0
45.02	1.9001E+5	4.5112	0.5754	-128.9
45.24	1.9101E+5	4.5109	0.5759	-131.1
45.44	1.9201E+5	4.5072	0.5770	-127.7
45.62	1.9301E+5	4.5109	0.5769	-127.3
45.80	1.9401E+5	4.5113	0.5766	-128.1
46.00	1.9501E+5	4.5123	0.5753	-129.0
46.23	1.9601E+5	4.5099	0.5747	-127.3
46.44	1.9701E+5	4.5130	0.5745	-129.2
46.63	1.9801E+5	4.5156	0.5752	-129.1
46.82	1.9901E+5	4.5099	0.5756	-127.9
47.02	2.0001E+5	4.5120	0.5750	-127.8
47.22	2.0101E+5	4.5170	0.5750	-127.2
47.40	2.0201E+5	4.5128	0.5756	-129.9
47.58	2.0301E+5	4.5156	0.5745	-127.9
47.77	2.0401E+5	4.5156	0.5747	-127.3
47.95	2.0501E+5	4.5113	0.5745	-127.3
48.16	2.0601E+5	4.5145	0.5743	-126.5
48.38	2.0701E+5	4.5184	0.5754	-127.9
48.56	2.0801E+5	4.5170	0.5745	-123.8
48.75	2.0901E+5	4.5128	0.5750	-129.2
48.93	2.1001E+5	4.5184	0.5745	-124.4
49.11	2.1101E+5	4.5184	0.5737	-126.1
49.30	2.1201E+5	4.5184	0.5745	-126.1
49.48	2.1301E+5	4.5142	0.5743	-126.4
49.66	2.1401E+5	4.5198	0.5760	-125.4
49.88	2.1501E+5	4.5170	0.5752	-124.8
50.08	2.1601E+5	4.5142	0.5750	-123.9
50.26	2.1701E+5	4.5184	0.5763	-125.2
50.48	2.1801E+5	4.5198	0.5759	-122.4
50.66	2.1901E+5	4.5227	0.5766	-124.7
50.84	2.2001E+5	4.5156	0.5763	-126.1
51.03	2.2101E+5	4.5198	0.5760	-125.8
51.21	2.2201E+5	4.5198	0.5778	-124.7
51.39	2.2301E+5	4.5227	0.5773	-122.3
51.57	2.2401E+5	4.5227	0.5774	-122.8
51.76	2.2501E+5	4.5170	0.5783	-123.5
51.94	2.2601E+5	4.5241	0.5781	-122.0
52.12	2.2701E+5	4.5212	0.5784	-122.4
52.31	2.2801E+5	4.5227	0.5788	-123.4
52.51	2.2901E+5	4.5212	0.5794	-124.0
52.69	2.3001E+5	4.5212	0.5798	-122.1
52.87	2.3101E+5	4.5255	0.5808	-122.1
53.05	2.3201E+5	4.5241	0.5801	-121.7
53.24	2.3301E+5	4.5184	0.5811	-121.1
53.42	2.3401E+5	4.5212	0.5811	-123.7
53.60	2.3501E+5	4.5241	0.5804	-121.2
53.79	2.3601E+5	4.5269	0.5827	-122.2
53.99	2.3701E+5	4.5269	0.5839	-122.5
54.17	2.3801E+5	4.5255	0.5838	-120.9
54.35	2.3901E+5	4.5255	0.5844	-121.1
54.55	2.4001E+5	4.5227	0.5858	-121.4
54.73	2.4101E+5	4.5241	0.5856	-120.6
54.92	2.4201E+5	4.5297	0.5869	-121.2
55.10	2.4301E+5	4.5269	0.5853	-120.7
55.28	2.4401E+5	4.5212	0.5887	-120.7
55.48	2.4501E+5	4.5227	0.5894	-119.6
55.66	2.4601E+5	4.5241	0.5900	-120.3
55.87	2.4701E+5	4.5297	0.5917	-120.6
56.05	2.4801E+5	4.5255	0.5902	-121.7
56.23	2.4901E+5	4.5227	0.5921	-119.8
56.41	2.5001E+5	4.5255	0.5931	-120.9
56.61	2.5101E+5	4.5255	0.5924	-120.4
56.83	2.5201E+5	4.5241	0.5962	-123.0
57.03	2.5301E+5	4.5241	0.5959	-120.7
57.21	2.5401E+5	4.5340	0.5971	-120.6
57.40	2.5501E+5	4.5227	0.5978	-119.6
57.58	2.5601E+5	4.5255	0.5998	-121.2
57.79	2.5701E+5	4.5227	0.5988	-118.9
57.98	2.5801E+5	4.5255	0.6012	-119.7
58.18	2.5901E+5	4.5283	0.6017	-120.1
58.36	2.6001E+5	4.5283	0.6017	-119.5
58.54	2.6101E+5	4.5255	0.6027	-118.6
58.73	2.6201E+5	4.5283	0.6050	-118.8
58.92	2.6301E+5	4.5269	0.6077	-120.1
59.12	2.6401E+5	4.5297	0.6080	-118.9
59.31	2.6501E+5	4.5297	0.6084	-119.1
59.49	2.6601E+5	4.5297	0.6109	-118.9
59.69	2.6701E+5	4.5255	0.6109	-118.7
59.87	2.6801E+5	4.5283	0.6156	-118.3
60.09	2.6901E+5	4.5269	0.6129	-119.4
60.30	2.7001E+5	4.5283	0.6165	-117.4
60.51	2.7101E+5	4.5255	0.6165	-117.3
60.69	2.7201E+5	4.5311	0.6184	-117.5
60.90	2.7301E+5	4.5326	0.6189	-116.7
61.09	2.7401E+5	4.5255	0.6206	-116.9
61.27	2.7501E+5	4.5297	0.6230	-116.0
61.47	2.7601E+5	4.5326	0.6244	-116.0
61.67	2.7701E+5	4.5368	0.6282	-114.0
61.87	2.7801E+5	4.5354	0.6285	-117.1
62.05	2.7901E+5	4.5227	0.6297	-116.4
62.25	2.8001E+5	4.5297	0.6320	-116.2
62.43	2.8101E+5	4.5326	0.6340	-115.0
62.63	2.8201E+5	4.5311	0.6347	-113.8
62.82	2.8301E+5	4.5297	0.6371	-117.4
63.02	2.8401E+5	4.5326	0.6372	-115.4
63.20	2.8501E+5	4.5269	0.6387	-115.6
63.40	2.8601E+5	4.5297	0.6413	-115.5
63.62	2.8701E+5	4.5283	0.6443	-113.9
63.81	2.8801E+5	4.5326	0.6433	-113.8
64.01	2.8901E+5	4.5283	0.6493	-112.4
64.21	2.9001E+5	4.5340	0.6507	-114.8
64.40	2.9101E+5	4.5269	0.6500	-115.2
64.58	2.9201E+5	4.5354	0.6548	-115.2
64.78	2.9301E+5	4.5283	0.6562	-115.2
64.98	2.9401E+5	4.5311	0.6593	-112.8
65.18	2.9501E+5	4.5269	0.6603	-113.4
65.36	2.9601E+5	4.5255	0.6616	-115.1
65.56	2.9701E+5	4.5368	0.6661	-114.2
65.76	2.9801E+5	4.5368	0.6672	-111.8
65.96	2.9901E+5	4.5354	0.6696	-113.4
66.16	3.0001E+5	4.5368	0.6732	-115.2
66.36	3.0101E+5	4.5326	0.6767	-112.8
66.56	3.0201E+5	4.5311	0.6767	-111.5
66.74	3.0301E+5	4.5283	0.6791	-111.7
66.94	3.0401E+5	4.5255	0.6832	-114.4
67.14	3.0501E+5	4.5368	0.6841	-112.0
67.32	3.0601E+5	4.5326	0.6883	-112.4
67.54	3.0701E+5	4.5326	0.6917	-112.6
67.74	3.0801E+5	4.5297	0.6955	-112.0
67.94	3.0901E+5	4.5297	0.6975	-112.1
68.14	3.1001E+5	4.5311	0.7006	-112.7
68.34	3.1101E+5	4.5297	0.7043	-110.8
68.54	3.1201E+5	4.5354	0.7072	-112.3
68.74	3.1301E+5	4.5326	0.7128	-110.9
68.94	3.1401E+5	4.5326	0.7136	-110.8
69.12	3.1501E+5	4.5255	0.7212	-111.6
69.32	3.1601E+5	4.5425	0.7251	-112.9
69.55	3.1701E+5	4.5283	0.7286	-111.4
69.78	3.1801E+5	4.5425	0.7319	-113.6
70.02	3.1901E+5	4.5354	0.7357	-111.5
70.23	3.2001E+5	4.5297	0.7396	-110.8
70.43	3.2101E+5	4.5354	0.7430	-111.5
70.63	3.2201E+5	4.5354	0.7454	-112.2
70.83	3.2301E+5	4.5368	0.7511	-108.7
71.03	3.2401E+5	4.5340	0.7562	-110.2
71.23	3.2501E+5	4.5396	0.7593	-109.8
71.43	3.2601E+5	4.5311	0.7648	-108.6
71.63	3.2701E+5	4.5311	0.7716	-109.0
71.83	3.2801E+5	4.5297	0.7773	-108.3
72.03	3.2901E+5	4.5269	0.7833	-110.9
72.25	3.3001E+5	4.5354	0.7859	-108.0
72.45	3.3101E+5	4.5410	0.7903	-107.0
72.68	3.3201E+5	4.5410	0.7941	-109.1
72.88	3.3301E+5	4.5283	0.8010	-109.2
73.11	3.3401E+5	4.5340	0.8105	-108.8
73.33	3.3501E+5	4.5354	0.8119	-107.3
73.51	3.3601E+5	4.5368	0.8160	-105.8
73.71	3.3701E+5	4.5326	0.8239	-106.5
73.91	3.3801E+5	4.5382	0.8251	-105.5
74.11	3.3901E+5	4.5354	0.8352	-104.8
74.33	3.4001E+5	4.5396	0.8355	-105.0
74.51	3.4101E+5	4.5326	0.8453	-105.4
74.71	3.4201E+5	4.5326	0.8457	-104.4
74.89	3.4301E+5	4.5368	0.8574	-105.3
75.09	3.4401E+5	4.5368	0.8618	-104.8
75.31	3.4501E+5	4.5326	0.8666	-105.1
75.51	3.4601E+5	4.5326	0.8761	-105.4
75.71	3.4701E+5	4.5382	0.8785	-103.1
75.91	3.4801E+5	4.5368	0.8815	-106.0
76.10	3.4901E+5	4.5396	0.8928	-104.4
76.31	3.5001E+5	4.5354	0.8969	-104.5
76.50	3.5101E+5	4.5439	0.9074	-103.5
76.72	3.5201E+5	4.5368	0.9141	-105.1
76.94	3.5301E+5	4.5382	0.9192	-103.1
77.14	3.5401E+5	4.5311	0.9345	-100.2
77.34	3.5501E+5	4.5311	0.9347	-101.9
77.52	3.5601E+5	4.5269	0.9426	-101.3
77.73	3.5701E+5	4.5297	0.9590	-102.6
77.94	3.5801E+5	4.5326	0.9632	-102.4
78.14	3.5901E+5	4.5311	0.9693	-99.8
78.33	3.6001E+5	4.5354	0.9829	-99.8
78.53	3.6101E+5	4.5311	0.9928	-100.6
78.73	3.6201E+5	4.5326	1.0015	-100.5
78.93	3.6301E+5	4.5283	1.0107	-98.5
79.13	3.6401E+5	4.5283	1.0228	-98.3
79.33	3.6501E+5	4.5241	1.0409	-98.6
79.53	3.6601E+5	4.5311	1.0495	-99.1
79.73	3.6701E+5	4.5326	1.0625	-95.8
79.93	3.6801E+5	4.5297	1.0761	-97.6
80.13	3.6901E+5	4.5311	1.0809	-98.1
80.35	3.7001E+5	4.5283	1.0916	-97.1
80.55	3.7101E+5	4.5255	1.1020	-95.7
80.75	3.7201E+5	4.5326	1.1138	-96.4
80.94	3.7301E+5	4.5156	1.1264	-95.9
81.14	3.7401E+5	4.5241	1.1404	-93.6
81.34	3.7501E+5	4.5170	1.1587	-92.8
81.54	3.7601E+5	4.5241	1.1646	-95.4
81.74	3.7701E+5	4.5227	1.1754	-93.6
81.94	3.7801E+5	4.5184	1.1957	-92.4
82.14	3.7901E+5	4.5142	1.2043	-92.1
82.34	3.8001E+5	4.5198	1.2261	-93.3
82.54	3.8101E+5	4.5128	1.2397	-90.8
82.74	3.8201E+5	4.5227	1.2496	-91.8
82.94	3.8301E+5	4.5184	1.2656	-88.0
83.14	3.8401E+5	4.5184	1.2784	-87.8
83.34	3.8501E+5	4.5142	1.2920	-89.7
83.54	3.8601E+5	4.5170	1.3144	-87.3
83.74	3.8701E+5	4.5184	1.3336	-87.5
83.94	3.8801E+5	4.5099	1.3435	-86.2
84.16	3.8901E+5	4.5183	1.3617	-85.9
84.37	3.9001E+5	4.5142	1.3883	-85.4
84.57	3.9101E+5	4.5113	1.4070	-84.0
84.79	3.9201E+5	4.5116	1.4381	-85.6
85.02	3.9301E+5	4.5184	1.4583	-82.5
85.22	3.9401E+5	4.5198	1.4777	-81.5
85.42	3.9501E+5	4.5170	1.4977	-79.1
85.62	3.9601E+5	4.5184	1.5172	-79.5
85.82	3.9701E+5	4.5142	1.5370	-79.9
86.02	3.9801E+5	4.5142	1.5672	-78.1
86.22	3.9901E+5	4.5099	1.5784	-77.2
86.45	4.0001E+5	4.5178	1.5933	-75.6
86.67	4.0101E+5	4.5184	1.6087	-75.2
86.87	4.0201E+5	4.5184	1.6409	-73.2
87.06	4.0301E+5	4.5142	1.6675	-72.0
87.27	4.0401E+5	4.5170	1.6891	-71.2
87.47	4.0501E+5	4.5227	1.7102	-69.2
87.66	4.0601E+5	4.5156	1.7297	-68.6
87.86	4.0701E+5	4.5198	1.7518	-67.4
88.06	4.0801E+5	4.5170	1.7784	-66.6
88.26	4.0901E+5	4.5184	1.7980	-65.1
88.46	4.1001E+5	4.5212	1.8116	-63.6
88.66	4.1101E+5	4.5184	1.8381	-59.9
88.86	4.1201E+5	4.5184	1.8499	-60.2
89.06	4.1301E+5	4.5198	1.8744	-58.8
89.26	4.1401E+5	4.5255	1.8926	-55.2
89.46	4.1501E+5	4.5212	1.9030	-53.5
89.66	4.1601E+5	4.5227	1.9206	-51.6
89.86	4.1701E+5	4.5212	1.9328	-49.5
90.06	4.1801E+5	4.5184	1.9525	-47.9
90.28	4.1901E+5	4.5241	1.9621	-47.2
90.47	4.2001E+5	4.5198	1.9711	-45.2
90.69	4.2101E+5	4.5283	1.9799	-43.3
90.89	4.2201E+5	4.5255	1.9792	-39.9
91.07	4.2301E+5	4.5283	1.9875	-40.8
91.27	4.2401E+5	4.5241	1.9902	-36.1
91.47	4.2501E+5	4.5255	1.9874	-34.8
91.67	4.2601E+5	4.5170	1.9789	-34.9
91.87	4.2701E+5	4.5255	1.9769	-30.2
92.07	4.2801E+5	4.5269	1.9643	-31.0
92.27	4.2901E+5	4.5198	1.9495	-27.2
92.47	4.3001E+5	4.5283	1.9304	-25.9
92.67	4.3101E+5	4.5283	1.9239	-24.2
92.87	4.3201E+5	4.5269	1.8982	-23.4
93.07	4.3301E+5	4.5283	1.8846	-18.9
93.27	4.3401E+5	4.5255	1.8615	-16.4
93.48	4.3501E+5	4.5241	1.8402	-19.2
93.68	4.3601E+5	4.5269	1.8243	-13.3
93.88	4.3701E+5	4.5283	1.8020	-13.8
94.08	4.3801E+5	4.5283	1.7812	-11.0
94.30	4.3901E+5	4.5340	1.7521	-12.4
94.50	4.4001E+5	4.5283	1.7324	-6.6
94.72	4.4101E+5	4.5269	1.6992	-5.8
94.92	4.4201E+5	4.5269	1.6724	-4.1
95.11	4.4301E+5	4.5354	1.6543	-3.1
95.31	4.4401E+5	4.5283	1.6222	-2.9
95.51	4.4501E+5	4.5255	1.5976	-2.0
95.73	4.4601E+5	4.5269	1.5660	-1.0
95.95	4.4701E+5	4.5297	1.5471	+2.3
96.15	4.4801E+5	4.5241	1.5042	+1.0
96.34	4.4901E+5	4.5311	1.4861	+3.9
96.55	4.5001E+5	4.5311	1.4626	+5.6
96.75	4.5101E+5	4.5311	1.4291	+4.6
96.96	4.5201E+5	4.5283	1.3961	+7.4
97.16	4.5301E+5	4.5255	1.3725	+5.5
97.36	4.5401E+5	4.5326	1.3400	+11.0
97.56	4.5501E+5	4.5269	1.3091	+10.6
97.78	4.5601E+5	4.5326	1.2933	+12.0
97.98	4.5701E+5	4.5297	1.2557	+13.9
98.18	4.5801E+5	4.5269	1.2367	+12.5
98.37	4.5901E+5	4.5439	1.2203	+15.6
98.61	4.6001E+5	4.5241	1.1922	+13.6
98.82	4.6101E+5	4.5340	1.1708	+17.0
99.02	4.6201E+5	4.5354	1.1478	+17.3
99.24	4.6301E+5	4.5368	1.1359	+17.2
99.46	4.6401E+5	4.5269	1.0980	+17.2
99.66	4.6501E+5	4.5297	1.0962	+17.0
99.84	4.6601E+5	4.5311	1.0786	+18.3
100.04	4.6701E+5	4.5283	1.0568	+19.1
100.24	4.6801E+5	4.5340	1.0329	+20.4
100.44	4.6901E+5	4.5368	1.0188	+21.3
100.64	4.7001E+5	4.5297	0.9936	+22.6
100.84	4.7101E+5	4.5283	0.9694	+23.6
101.04	4.7201E+5	4.5297	0.9550	+24.0
101.24	4.7301E+5	4.5241	0.9322	+23.3
101.44	4.7401E+5	4.5311	0.9228	+23.1
101.63	4.7501E+5	4.5354	0.8989	+24.1
101.83	4.7601E+5	4.5340	0.8853	+24.5
102.03	4.7701E+5	4.5311	0.8768	+24.9
102.23	4.7801E+5	4.5382	0.8666	+26.6
102.43	4.7901E+5	4.5283	0.8485	+27.7
102.63	4.8001E+5	4.5354	0.8327	+24.7
102.85	4.8101E+5	4.5326	0.8242	+28.0
103.05	4.8201E+5	4.5297	0.8153	+27.4
103.25	4.8301E+5	4.5326	0.7990	+31.1
103.45	4.8401E+5	4.5326	0.7760	+29.6
103.65	4.8501E+5	4.5340	0.7669	+29.6
103.86	4.8601E+5	4.5283	0.7567	+29.2
104.06	4.8701E+5	4.5269	0.7490	+29.4
104.26	4.8801E+5	4.5368	0.7302	+29.2
104.46	4.8901E+5	4.5311	0.7138	+27.9
104.66	4.9001E+5	4.5283	0.7115	+30.4
104.84	4.9101E+5	4.5297	0.7000	+29.9
105.04	4.9201E+5	4.5425	0.6893	+30.7
105.28	4.9301E+5	4.5326	0.6634	+33.6
105.51	4.9401E+5	4.5297	0.6696	+33.2
105.71	4.9501E+5	4.5340	0.6552	+30.7
105.91	4.9601E+5	4.5311	0.6452	+32.4
106.11	4.9701E+5	4.5340	0.6398	+32.0
106.31	4.9801E+5	4.5354	0.6365	+32.7
106.51	4.9901E+5	4.5311	0.6248	+31.0
106.71	5.0001E+5	4.5340	0.6080	+35.0
106.91	5.0101E+5	4.5326	0.6043	+35.5
107.11	5.0201E+5	4.5354	0.6034	+35.2
107.31	5.0301E+5	4.5340	0.5952	+35.5
107.50	5.0401E+5	4.5311	0.5829	+36.0
107.70	5.0501E+5	4.5368	0.5745	+35.5
107.90	5.0601E+5	4.5340	0.5631	+33.8
108.12	5.0701E+5	4.5326	0.5588	+35.3
108.32	5.0801E+5	4.5297	0.5530	+35.3
108.52	5.0901E+5	4.5241	0.5469	+35.0
108.72	5.1001E+5	4.5311	0.5409	+35.1
108.94	5.1101E+5	4.5354	0.5346	+34.1
109.14	5.1201E+5	4.5311	0.5257	+36.7
109.33	5.1301E+5	4.5311	0.5196	+35.2
109.53	5.1401E+5	4.5382	0.5129	+35.5
109.73	5.1501E+5	4.5368	0.4999	+36.7
109.93	5.1601E+5	4.5326	0.5070	+35.2
110.13	5.1701E+5	4.5297	0.4873	+36.7
110.33	5.1801E+5	4.5326	0.4890	+36.6
110.53	5.1901E+5	4.5354	0.4798	+37.0
110.73	5.2001E+5	4.5283	0.4756	+38.0
110.93	5.2101E+5	4.5311	0.4714	+37.0
111.13	5.2201E+5	4.5354	0.4583	+38.3
111.33	5.2301E+5	4.5340	0.4619	+37.1
111.53	5.2401E+5	4.5368	0.4538	+42.1
111.73	5.2501E+5	4.5326	0.4468	+37.7
111.93	5.2601E+5	4.5311	0.4394	+38.4
112.13	5.2701E+5	4.5326	0.4397	+35.5
112.31	5.2801E+5	4.5311	0.4361	+38.5
